File: PT1000 Check/20240703002_details.csv
,DataPoint,Cycle Index,Step Index,Step Type,Time,Total Time,Current(A),Voltage(V),Capacity(Ah),Energy(Wh),Date,Power(W),V1(V),T1(℃),Aux. ΔV(V),Aux. ΔT(℃)
0,1,1,1,Rest,00:00:00,00:00:00,0.0,-0.0062,0.0,0.0,2024-07-30 20:14:11,0.0,-0.0235,25.1,0,0
148,149,1,2,CC Chg,00:01:57,00:02:26,0.00099,1.0739,3e-05,3e-05,2024-07-30 20:16:37,0.00107,1.0751,25.1,0,0
296,297,1,2,CC Chg,00:04:24,00:04:54,0.00099,1.0704,7e-05,8e-05,2024-07-30 20:19:05,0.00106,1.0725,24.9,0,0
444,445,1,2,CC Chg,00:06:52,00:07:22,0.00099,1.0779,0.00011,0.00012,2024-07-30 20:21:33,0.00107,1.0685,25.1,0,0
592,593,1,2,CC Chg,00:09:20,00:09:50,0.00099,1.0689,0.00015,0.00016,2024-07-30 20:24:01,0.00106,1.0668,25.0,0,0
740,741,1,3,Rest,00:01:47,00:12:16,0.0,0.0086,0.0,0.0,2024-07-30 20:26:28,0.0,-0.0181,25.0,0,0
888,889,1,3,Rest,00:04:15,00:14:44,0.0,0.0049,0.0,0.0,2024-07-30 20:28:56,0.0,0.0124,25.0,0,0
1036,1037,1,4,CC Chg,00:01:42,00:17:11,0.00198,2.1719,6e-05,0.00012,2024-07-30 20:31:23,0.00431,2.1661,24.8,0,0
1184,1185,1,4,CC Chg,00:04:10,00:19:39,0.00198,2.1648,0.00014,0.0003,2024-07-30 20:33:51,0.00429,2.1645,25.0,0,0
1332,1333,1,4,CC Chg,00:06:38,00:22:07,0.00198,2.1651,0.00022,0.00048,2024-07-30 20:36:19,0.0043,2.1615,25.0,0,0
1480,1481,1,4,CC Chg,00:09:06,00:24:35,0.00198,2.1676,0.0003,0.00065,2024-07-30 20:38:47,0.0043,2.1676,24.8,0,0
1628,1629,1,5,Rest,00:01:33,00:27:02,0.0,0.0043,0.0,0.0,2024-07-30 20:41:14,0.0,0.0127,24.8,0,0
1776,1777,1,5,Rest,00:04:01,00:29:30,0.0,0.0043,0.0,0.0,2024-07-30 20:43:42,0.0,0.0246,24.8,0,0
1924,1925,1,6,CC Chg,00:01:28,00:31:57,0.00298,3.2601,7e-05,0.00024,2024-07-30 20:46:09,0.00972,3.2624,25.0,0,0
2072,2073,1,6,CC Chg,00:03:56,00:34:25,0.00298,3.2601,0.0002,0.00064,2024-07-30 20:48:37,0.00972,3.2555,25.0,0,0
2220,2221,1,6,CC Chg,00:06:24,00:36:53,0.00298,3.2666,0.00032,0.00104,2024-07-30 20:51:05,0.00974,3.2578,24.9,0,0
2368,2369,1,6,CC Chg,00:08:52,00:39:21,0.00298,3.2604,0.00044,0.00144,2024-07-30 20:53:33,0.00972,3.2604,24.7,0,0
2516,2517,1,7,Rest,00:01:19,00:41:48,0.0,0.004,0.0,0.0,2024-07-30 20:56:00,0.0,0.0107,24.7,0,0
2664,2665,1,7,Rest,00:03:47,00:44:16,0.0,0.0074,0.0,0.0,2024-07-30 20:58:28,0.0,-0.005,24.7,0,0
2812,2813,1,8,CC Chg,00:01:14,00:46:43,0.00399,4.3765,8e-05,0.00036,2024-07-30 21:00:55,0.01748,4.3756,24.9,0,0
2960,2961,1,8,CC Chg,00:03:42,00:49:11,0.00399,4.3901,0.00025,0.00108,2024-07-30 21:03:23,0.01753,4.3837,24.9,0,0
3108,3109,1,8,CC Chg,00:06:10,00:51:39,0.00399,4.3889,0.00041,0.0018,2024-07-30 21:05:51,0.01752,4.3842,24.9,0,0
3256,3257,1,8,CC Chg,00:08:38,00:54:07,0.00399,4.3843,0.00057,0.00252,2024-07-30 21:08:19,0.01751,4.3868,24.7,0,0
3404,3405,1,9,Rest,00:01:05,00:56:34,0.0,0.0062,0.0,0.0,2024-07-30 21:10:46,0.0,0.0241,24.9,0,0
3552,3553,1,9,Rest,00:03:33,00:59:02,0.0,0.0077,0.0,0.0,2024-07-30 21:13:14,0.0,0.019,24.8,0,0
3700,3701,1,10,CC Chg,00:01:00,01:01:29,0.00448,4.9252,7e-05,0.00037,2024-07-30 21:15:41,0.02207,4.9166,24.6,0,0
3848,3849,1,10,CC Chg,00:03:28,01:03:57,0.00448,4.9404,0.00026,0.00128,2024-07-30 21:18:09,0.02214,4.9258,24.8,0,0
3996,3997,1,10,CC Chg,00:05:56,01:06:25,0.00448,4.937,0.00044,0.00218,2024-07-30 21:20:37,0.02213,4.9311,24.8,0,0
4144,4145,1,10,CC Chg,00:08:24,01:08:53,0.00448,4.9305,0.00063,0.00309,2024-07-30 21:23:05,0.0221,4.9284,25.2,0,0
4292,4293,1,11,Rest,00:00:51,01:11:20,0.0,0.0062,0.0,0.0,2024-07-30 21:25:32,0.0,-0.0055,25.2,0,0
4440,4441,1,11,Rest,00:03:19,01:13:48,0.0,0.0065,0.0,0.0,2024-07-30 21:28:00,0.0,0.0084,25.2,0,0
4588,4589,1,12,Rest,00:00:46,01:16:15,0.0,0.0018,0.0,0.0,2024-07-30 21:30:27,0.0,0.0169,25.2,0,0
4736,4737,1,12,Rest,00:03:14,01:18:43,0.0,0.0024,0.0,0.0,2024-07-30 21:32:55,0.0,-0.0204,25.4,0,0
4884,4885,1,12,Rest,00:05:42,01:21:11,0.0,0.0043,0.0,0.0,2024-07-30 21:35:23,0.0,0.0066,25.4,0,0
5032,5033,1,12,Rest,00:08:10,01:23:39,0.0,0.0065,0.0,0.0,2024-07-30 21:37:51,0.0,-0.0153,25.4,0,0
5180,5181,1,12,Rest,00:10:38,01:26:07,0.0,0.0068,0.0,0.0,2024-07-30 21:40:19,0.0,0.0103,25.4,0,0
5328,5329,1,12,Rest,00:13:06,01:28:35,0.0,0.0046,0.0,0.0,2024-07-30 21:42:47,0.0,0.0195,25.6,0,0
5476,5477,1,12,Rest,00:15:34,01:31:03,0.0,0.004,0.0,0.0,2024-07-30 21:45:15,0.0,0.0136,25.6,0,0
5624,5625,1,12,Rest,00:18:02,01:33:31,0.0,0.0018,0.0,0.0,2024-07-30 21:47:43,0.0,-0.0075,25.6,0,0
5772,5773,1,12,Rest,00:20:30,01:35:59,0.0,0.004,0.0,0.0,2024-07-30 21:50:11,0.0,-0.0253,25.8,0,0
5920,5921,1,12,Rest,00:22:58,01:38:27,0.0,0.0046,0.0,0.0,2024-07-30 21:52:39,0.0,-0.0175,25.6,0,0
6068,6069,1,12,Rest,00:25:26,01:40:55,0.0,0.0058,0.0,0.0,2024-07-30 21:55:07,0.0,-0.0104,25.8,0,0
6216,6217,1,12,Rest,00:27:54,01:43:23,0.0,0.0043,0.0,0.0,2024-07-30 21:57:35,0.0,0.0129,25.8,0,0
6364,6365,1,12,Rest,00:30:22,01:45:51,0.0,0.0018,0.0,0.0,2024-07-30 22:00:03,0.0,0.0121,25.9,0,0
6512,6513,1,12,Rest,00:32:50,01:48:19,0.0,0.0027,0.0,0.0,2024-07-30 22:02:31,0.0,0.0143,25.8,0,0
6660,6661,1,12,Rest,00:35:18,01:50:47,0.0,0.0065,0.0,0.0,2024-07-30 22:04:59,0.0,0.0069,25.8,0,0
6808,6809,1,12,Rest,00:37:46,01:53:15,0.0,0.0058,0.0,0.0,2024-07-30 22:07:27,0.0,0.0084,25.8,0,0
6956,6957,1,12,Rest,00:40:14,01:55:43,0.0,0.0043,0.0,0.0,2024-07-30 22:09:55,0.0,-0.0238,25.8,0,0
7104,7105,1,12,Rest,00:42:42,01:58:11,0.0,0.0065,0.0,0.0,2024-07-30 22:12:23,0.0,0.0161,25.8,0,0
7252,7253,1,12,Rest,00:45:10,02:00:39,0.0,0.004,0.0,0.0,2024-07-30 22:14:51,0.0,0.0023,25.8,0,0
7400,7401,1,12,Rest,00:47:38,02:03:07,0.0,0.0077,0.0,0.0,2024-07-30 22:17:19,0.0,-0.0179,25.8,0,0
7548,7549,1,12,Rest,00:50:06,02:05:35,0.0,0.0077,0.0,0.0,2024-07-30 22:19:47,0.0,0.0266,25.8,0,0
7696,7697,1,12,Rest,00:52:34,02:08:03,0.0,0.0021,0.0,0.0,2024-07-30 22:22:15,0.0,0.0172,25.8,0,0
7844,7845,1,12,Rest,00:55:02,02:10:31,0.0,0.004,0.0,0.0,2024-07-30 22:24:43,0.0,0.0061,25.8,0,0
7992,7993,1,12,Rest,00:57:30,02:12:59,0.0,0.0031,0.0,0.0,2024-07-30 22:27:11,0.0,0.0136,25.8,0,0
8140,8141,1,12,Rest,00:59:58,02:15:27,0.0,0.0049,0.0,0.0,2024-07-30 22:29:39,0.0,0.0252,25.8,0,0
8288,8289,1,12,Rest,01:02:26,02:17:55,0.0,0.0065,0.0,0.0,2024-07-30 22:32:07,0.0,0.017,25.8,0,0
8436,8437,1,12,Rest,01:04:54,02:20:23,0.0,0.0046,0.0,0.0,2024-07-30 22:34:35,0.0,-0.0106,25.8,0,0
8584,8585,1,12,Rest,01:07:22,02:22:51,0.0,0.0086,0.0,0.0,2024-07-30 22:37:03,0.0,0.0258,25.8,0,0
8732,8733,1,12,Rest,01:09:50,02:25:19,0.0,0.0058,0.0,0.0,2024-07-30 22:39:31,0.0,-0.0222,25.9,0,0
8880,8881,1,12,Rest,01:12:18,02:27:47,0.0,0.0046,0.0,0.0,2024-07-30 22:41:59,0.0,0.0092,25.9,0,0
9028,9029,1,12,Rest,01:14:46,02:30:15,0.0,0.0024,0.0,0.0,2024-07-30 22:44:27,0.0,0.0036,25.9,0,0
9176,9177,1,12,Rest,01:17:14,02:32:43,0.0,0.0068,0.0,0.0,2024-07-30 22:46:55,0.0,-0.0193,25.9,0,0
9324,9325,1,12,Rest,01:19:42,02:35:11,0.0,0.0065,0.0,0.0,2024-07-30 22:49:23,0.0,0.0079,25.8,0,0
9472,9473,1,12,Rest,01:22:10,02:37:39,0.0,0.0065,0.0,0.0,2024-07-30 22:51:51,0.0,-0.0098,25.8,0,0
9620,9621,1,12,Rest,01:24:38,02:40:07,0.0,0.0046,0.0,0.0,2024-07-30 22:54:19,0.0,-0.017,25.8,0,0
9768,9769,1,12,Rest,01:27:06,02:42:35,0.0,0.0074,0.0,0.0,2024-07-30 22:56:47,0.0,0.0178,25.8,0,0
9916,9917,1,12,Rest,01:29:34,02:45:03,0.0,0.0043,0.0,0.0,2024-07-30 22:59:15,0.0,0.0282,25.8,0,0
10064,10065,1,12,Rest,01:32:02,02:47:31,0.0,0.0058,0.0,0.0,2024-07-30 23:01:43,0.0,-0.011,25.8,0,0
10212,10213,1,12,Rest,01:34:30,02:49:59,0.0,0.0055,0.0,0.0,2024-07-30 23:04:11,0.0,0.0039,25.8,0,0
10360,10361,1,12,Rest,01:36:58,02:52:27,0.0,0.0037,0.0,0.0,2024-07-30 23:06:39,0.0,-0.0076,25.8,0,0
10508,10509,1,12,Rest,01:39:26,02:54:55,0.0,0.0027,0.0,0.0,2024-07-30 23:09:07,0.0,0.0124,25.7,0,0
10656,10657,1,12,Rest,01:41:54,02:57:23,0.0,0.0021,0.0,0.0,2024-07-30 23:11:35,0.0,-0.0099,25.7,0,0
10804,10805,1,12,Rest,01:44:22,02:59:51,0.0,0.0031,0.0,0.0,2024-07-30 23:14:03,0.0,0.0144,25.7,0,0
10952,10953,1,12,Rest,01:46:50,03:02:19,0.0,0.0049,0.0,0.0,2024-07-30 23:16:31,0.0,0.0164,25.7,0,0
11100,11101,1,12,Rest,01:49:18,03:04:47,0.0,0.004,0.0,0.0,2024-07-30 23:18:59,0.0,-0.0116,25.7,0,0
11248,11249,1,12,Rest,01:51:46,03:07:15,0.0,0.0043,0.0,0.0,2024-07-30 23:21:27,0.0,0.0186,25.7,0,0
11396,11397,1,12,Rest,01:54:14,03:09:43,0.0,0.0089,0.0,0.0,2024-07-30 23:23:55,0.0,-0.0176,25.9,0,0
11544,11545,1,12,Rest,01:56:42,03:12:11,0.0,0.0018,0.0,0.0,2024-07-30 23:26:23,0.0,-0.0115,25.8,0,0
11692,11693,1,12,Rest,01:59:10,03:14:39,0.0,0.0043,0.0,0.0,2024-07-30 23:28:51,0.0,-0.0229,25.8,0,0
11840,11841,1,12,Rest,02:01:38,03:17:07,0.0,0.004,0.0,0.0,2024-07-30 23:31:19,0.0,-0.0107,25.8,0,0
11988,11989,1,12,Rest,02:04:06,03:19:35,0.0,0.0058,0.0,0.0,2024-07-30 23:33:47,0.0,0.0103,25.8,0,0
12136,12137,1,12,Rest,02:06:34,03:22:03,0.0,0.0018,0.0,0.0,2024-07-30 23:36:15,0.0,-0.0143,25.7,0,0
12284,12285,1,12,Rest,02:09:02,03:24:31,0.0,0.0043,0.0,0.0,2024-07-30 23:38:43,0.0,0.0092,25.7,0,0
12432,12433,1,12,Rest,02:11:30,03:26:59,0.0,0.0065,0.0,0.0,2024-07-30 23:41:11,0.0,0.0087,25.7,0,0
12580,12581,1,12,Rest,02:13:58,03:29:27,0.0,0.0043,0.0,0.0,2024-07-30 23:43:39,0.0,0.0192,25.7,0,0
12728,12729,1,12,Rest,02:16:26,03:31:55,0.0,0.0046,0.0,0.0,2024-07-30 23:46:07,0.0,0.0229,25.7,0,0
12876,12877,1,12,Rest,02:18:54,03:34:23,0.0,0.004,0.0,0.0,2024-07-30 23:48:35,0.0,0.0179,25.7,0,0
13024,13025,1,12,Rest,02:21:22,03:36:51,0.0,0.0049,0.0,0.0,2024-07-30 23:51:03,0.0,0.0238,25.7,0,0
13172,13173,1,12,Rest,02:23:50,03:39:19,0.0,0.0062,0.0,0.0,2024-07-30 23:53:31,0.0,0.0107,25.7,0,0
13320,13321,1,12,Rest,02:26:18,03:41:47,0.0,0.0062,0.0,0.0,2024-07-30 23:55:59,0.0,0.0056,25.7,0,0
13468,13469,1,12,Rest,02:28:46,03:44:15,0.0,0.0074,0.0,0.0,2024-07-30 23:58:27,0.0,-0.0103,25.7,0,0
13616,13617,1,12,Rest,02:31:14,03:46:43,0.0,0.0046,0.0,0.0,2024-07-31 00:00:55,0.0,-0.0179,25.7,0,0
13764,13765,1,12,Rest,02:33:42,03:49:11,0.0,0.0058,0.0,0.0,2024-07-31 00:03:23,0.0,-0.0067,25.8,0,0
13912,13913,1,12,Rest,02:36:10,03:51:39,0.0,0.0058,0.0,0.0,2024-07-31 00:05:51,0.0,0.0204,25.8,0,0
14060,14061,1,12,Rest,02:38:38,03:54:07,0.0,0.0037,0.0,0.0,2024-07-31 00:08:19,0.0,-0.0207,25.8,0,0
14208,14209,1,12,Rest,02:41:06,03:56:35,0.0,0.0043,0.0,0.0,2024-07-31 00:10:47,0.0,0.0038,25.7,0,0
14356,14357,1,12,Rest,02:43:34,03:59:03,0.0,0.0068,0.0,0.0,2024-07-31 00:13:15,0.0,-0.0244,25.7,0,0
14504,14505,1,12,Rest,02:46:02,04:01:31,0.0,0.0089,0.0,0.0,2024-07-31 00:15:43,0.0,0.0149,25.7,0,0
14623,14624,1,12,Rest,02:48:01,04:03:30,0.0,0.0068,0.0,0.0,2024-07-31 00:17:42,0.0,0.0029,25.7,0,0